# Header: Project1::TD-Grain3::New Highlight Partition::Grain Size   7/10/2017
# 
# Column 1-3: Average orientation (phi1, PHI, phi2) in radians
# Column 4-5: Average Position (x, y) in microns
# Column 6: Average Image Quality (IQ)
# Column 7: Average Confidence Index (CI)
# Column 8: Average Fit (degrees)
# Column 9: An integer identifying the phase
#           1 -  Iron - Alpha
#           2 -  Austenite
  1.79639   0.60648   4.47218    47.430     0.401 2039.5  0.196  1.66   2 
  1.77268   0.60602   4.51991    46.885     3.228 2318.9  0.432  1.29   2 
  1.71860   0.60681   4.53149    45.984     0.588 1923.1  0.207  1.71   2 
  1.64218   0.56246   4.62997    41.414     3.789 2268.6  0.462  1.27   2 
  1.51741   0.57117   4.73909    38.517     2.526 2167.7  0.356  1.48   2 
  1.80945   0.60347   4.46508    47.380     2.610 2325.8  0.281  1.46   2 
  1.41367   0.55231   4.85487    34.831     2.631 1921.5  0.180  1.69   2 
  1.46211   0.55623   4.80481    36.292     2.843 2190.7  0.298  1.36   2 
  1.36687   0.53785   4.90109    33.946     2.858 2169.2  0.405  1.24   2 
  1.67338   0.56662   4.59401    42.425     3.144 2005.6  0.323  1.49   2 
  1.63366   0.54205   4.66204    39.812     7.199 2421.5  0.491  1.22   2 
  1.84433   0.63209   4.45672    48.900     3.248 1740.8  0.054  1.96   2 
  1.48411   0.53041   4.78745    35.858     3.706 2180.1  0.295  1.40   2 
  1.69855   0.65686   4.53821    52.641     4.076 2095.7  0.187  1.58   2 
  1.51896   0.53373   4.75859    35.073     4.887 2427.0  0.550  1.16   2 
  1.55233   0.54639   4.73330    36.453     4.662 2244.1  0.447  1.33   2 
  1.47498   0.66143   4.74276    41.250     4.547 1816.4  0.107  1.90   2 
  1.52669   0.55571   4.72462    32.063     5.261 1962.4  0.000  2.37   2 
  1.57371   0.54772   4.70947    37.220     5.947 2085.2  0.307  1.46   2 
  1.66494   0.65555   4.56141    53.512     5.521 2304.9  0.605  0.93   2 
  1.78386   0.56175   4.56540    45.512     7.141 2393.9  0.420  1.28   2 
  1.51646   0.51599   4.76265    33.925     5.716 2053.9  0.117  1.82   2 
  1.47591   0.51018   4.77579    33.506     6.008 2186.2  0.197  1.62   2 
  1.73358   0.59549   4.57173    52.146     7.453 2289.5  0.379  1.36   2 
  1.65736   0.62978   4.55135    53.588     6.041 2258.1  0.684  1.21   2 
  1.65020   0.56847   4.59331    53.694     7.599 2175.4  0.335  1.39   2 
  1.59072   0.52446   4.70809    33.430     6.649 2190.1  0.451  1.36   2 
  1.59722   0.54966   4.69001    36.137     7.129 2390.6  0.461  1.34   2 
  1.56324   0.51185   4.71246    32.925     6.495 1976.9  0.042  1.78   2 
  1.59056   0.53941   4.69886    34.895     8.749 2456.0  0.518  1.23   2 
  1.59531   0.54094   4.67464    37.408     7.762 2388.6  0.477  1.26   2 
  1.79781   0.59373   4.56765    49.718     8.340 2495.9  0.500  1.16   2 
  1.56784   0.50479   4.70276    32.775     6.755 1756.9  0.226  1.53   2 
  1.82138   0.57102   4.54589    47.829     7.498 2169.1  0.335  1.34   2 
  1.55620   0.51603   4.70914    31.925     7.950 2488.2  0.580  1.10   2 
  1.64084   0.54191   4.68253    42.986     8.190 2291.3  0.349  1.40   2 
  1.65558   0.53003   4.65791    40.571     8.377 2257.9  0.359  1.39   2 
  1.77349   0.54701   4.59188    45.113     8.509 2774.2  0.595  1.00   2 
  1.63552   0.53001   4.66971    41.857     9.596 2242.1  0.395  1.41   2 
  1.73680   0.58749   4.62416    48.488     9.465 1923.4  0.188  1.69   2 
  1.70076   0.59578   4.57326    29.737     9.158 1949.3  0.000  1.87   2 
  1.61036   0.54208   4.68715    32.357     9.860 2488.2  0.534  1.17   2 
  1.61299   0.53306   4.67808    37.404     9.389 2315.5  0.439  1.27   2 
  1.70233   0.54467   4.64386    43.716     9.699 2339.3  0.455  1.21   2 
  1.68068   0.53633   4.59009    52.577     9.911 2203.6  0.377  1.44   2 
  1.75717   0.58189   4.61468    47.879    10.096 1982.3  0.168  1.72   2 
  1.59078   0.51988   4.67503    30.025    10.834 2449.8  0.559  1.21   2 
  1.81730   0.56515   4.56640    45.863     9.548 2120.0  0.000  2.01   2 
  1.70134   0.54255   4.64866    44.386    10.510 2229.0  0.376  1.31   2 
  1.64161   0.52143   4.67366    40.350    10.522 2516.6  0.214  1.51   2 
  1.59808   0.51828   4.69291    37.436    11.789 2454.8  0.512  1.27   2 
  1.60079   0.52549   4.69517    40.730    11.230 2323.7  0.452  1.24   2 
  1.67306   0.55442   4.66852    49.801    11.174 2217.0  0.418  1.37   2 
  1.80150   0.54597   4.53841    30.638    10.977 1881.4  0.060  2.41   2 
  1.64964   0.55562   4.69616    48.146    12.178 2325.2  0.495  1.21   2 
  1.56718   0.54496   4.70571    53.719    12.182 2072.9  0.292  1.51   2 
  1.72135   0.57192   4.64820    45.750    11.172 2483.3  0.333  1.55   2 
  1.59302   0.53967   4.70359    35.185    13.748 2537.9  0.543  1.21   2 
  1.62040   0.52394   4.68523    39.190    12.845 2530.0  0.572  1.10   2 
  1.59483   0.55193   4.69288    31.404    12.592 2350.0  0.471  1.25   2 
  1.59583   0.54778   4.69319    33.159    12.422 2041.1  0.237  1.60   2 
  1.69114   0.56730   4.66806    44.789    12.389 2492.1  0.571  1.08   2 
  1.67457   0.56805   4.67758    46.555    12.306 2310.7  0.338  1.42   2 
  1.63626   0.52403   4.68573    40.388    12.471 2398.3  0.493  1.23   2 
  1.70967   0.56557   4.65123    43.225    12.341 2173.3  0.095  1.66   2 
  1.59206   0.53597   4.70045    36.087    12.541 2177.3  0.355  1.38   2 
  1.62191   0.57733   4.73524    50.925    12.471 1760.6  0.238  1.52   2 
  1.64585   0.58242   4.69635    52.033    12.615 2171.1  0.412  1.44   2 
  1.54919   0.57524   4.68816    60.128    13.750 2261.5  0.433  1.30   2 
  1.49850   0.56547   4.67723    59.475    12.653 1906.4  0.107  2.07   2 
  1.66098   0.56997   4.70189    50.175    12.731 2253.8  0.452  1.29   2 
  1.67036   0.59313   4.70006    50.775    12.731 2546.0  0.589  1.12   2 
  1.39644   0.63303   4.82719    54.675    12.774 1646.7  0.008  1.98   2 
  1.50312   0.57324   4.67412    58.725    13.026 1819.5  0.143  1.76   2 
  1.59625   0.54652   4.68579    27.029    15.521 2058.1  0.330  1.54   2 
  1.54164   0.52751   4.69088    54.813    13.200 1897.9  0.255  1.67   2 
  1.66633   0.53190   4.66330    40.837    13.120 1942.4  0.074  1.87   2 
  1.65672   0.56437   4.69923    46.826    13.452 2355.8  0.507  1.15   2 
  1.65297   0.60489   4.71394    50.900    13.077 2304.7  0.381  1.46   2 
  1.64124   0.60248   4.71715    51.313    13.229 2139.7  0.210  1.72   2 
  1.55797   0.58254   4.74527    52.950    13.510 2301.2  0.424  1.45   2 
  1.67828   0.56781   4.68830    44.850    13.120 2444.9  0.178  1.40   2 
  1.56842   0.55909   4.70741    30.540    14.331 2239.5  0.432  1.34   2 
  1.67002   0.54890   4.67962    42.475    13.380 2200.7  0.401  1.32   2 
  1.64827   0.56657   4.70442    45.705    14.061 2470.7  0.485  1.21   2 
  1.59907   0.55141   4.68670    33.970    13.816 2379.2  0.431  1.17   2 
  1.52764   0.53368   4.73032    61.895    13.960 2002.0  0.378  1.58   2 
  1.61279   0.53158   4.68561    37.482    14.054 2325.6  0.394  1.42   2 
  1.67111   0.54933   4.68207    42.375    13.770 2265.1  0.107  1.69   2 
  1.68330   0.58632   4.68890    50.775    13.813 1746.5  0.282  1.84   2 
  1.60861   0.59408   4.73932    51.607    14.289 2159.4  0.281  1.56   2 
  1.35958   0.60189   4.89818    30.788    14.095 1912.4  0.357  2.37   2 
  1.52947   0.52222   4.68947    26.513    14.224 1697.1  0.233  1.42   2 
  1.55421   0.56873   4.72406    32.224    17.115 2564.9  0.519  1.26   2 
  1.68971   0.55274   4.66522    40.340    14.549 2629.4  0.584  1.02   2 
  1.64820   0.55628   4.70520    44.550    14.376 2236.8  0.151  1.69   2 
  1.50044   0.55133   4.72661    54.872    14.962 2140.6  0.470  1.31   2 
  1.53038   0.53760   4.74265    53.928    14.877 2249.3  0.481  1.17   2 
  1.52136   0.60934   4.71911    57.945    16.387 2290.5  0.403  1.37   2 
  1.64317   0.53709   4.67993    38.845    15.717 2612.8  0.559  1.08   2 
  1.69565   0.55156   4.66506    42.375    14.809 2658.5  0.809  1.12   2 
  1.61700   0.51740   4.63670    63.032    15.254 1819.9  0.207  1.76   2 
  1.54914   0.56713   4.77570    51.751    15.913 2549.1  0.516  1.25   2 
  1.56658   0.58029   4.69227    60.912    15.469 1927.9  0.286  1.77   2 
  1.64984   0.55474   4.70782    40.912    15.134 2113.4  0.060  1.73   2 
  1.66328   0.55100   4.68332    43.012    15.134 2177.8  0.256  1.48   2 
  1.60327   0.52877   4.72481    45.075    15.285 2108.7  0.290  1.52   2 
  1.52714   0.57839   4.72673    29.256    16.885 2253.8  0.411  1.34   2 
  1.46181   0.54746   4.72192    61.500    15.545 1622.2  0.062  2.00   2 
  1.64456   0.54045   4.68073    41.358    15.819 2429.7  0.443  1.24   2 
  1.59293   0.56644   4.67660    62.167    15.945 2066.9  0.398  1.48   2 
  1.60366   0.53494   4.72393    44.900    15.675 1977.7  0.302  1.41   2 
  1.59477   0.54983   4.73969    43.764    16.159 2417.9  0.540  1.32   2 
  1.57209   0.54461   4.71510    63.727    16.514 2136.2  0.372  1.54   2 
  1.52658   0.62117   4.70272    56.550    16.640 2136.2  0.418  1.32   2 
  1.49244   0.56076   4.77779    54.660    16.787 2140.7  0.409  1.38   2 
  1.57525   0.55738   4.75291    42.194    17.934 2249.2  0.348  1.52   2 
  1.50812   0.59823   4.72135    60.840    16.856 1580.9  0.215  1.69   2 
  1.60106   0.54210   4.69404    36.140    17.174 2221.1  0.330  1.53   2 
  1.62833   0.55365   4.70246    38.092    17.784 2552.5  0.520  1.14   2 
  1.66181   0.56418   4.68759    39.947    17.326 2648.9  0.526  1.16   2 
  1.54707   0.53854   4.77976    51.112    17.082 2373.7  0.550  1.33   2 
  1.44935   0.53169   4.83123    53.050    17.191 2182.1  0.342  1.30   2 
  1.58847   0.56261   4.72276    35.509    18.440 2560.1  0.493  1.27   2 
  1.62258   0.57924   4.68387    62.330    17.442 2276.2  0.323  1.41   2 
  1.60489   0.54361   4.73714    43.975    17.450 2115.9  0.127  1.76   2 
  1.57666   0.54607   4.67877    24.862    17.732 1621.9  0.595  1.10   2 
  1.56116   0.61535   4.70690    60.931    18.633 2162.4  0.376  1.45   2 
  1.55916   0.57197   4.72148    23.925    18.354 1729.4  0.204  1.78   2 
  1.58108   0.58912   4.70226    57.058    24.007 2434.7  0.552  1.12   2 
  1.51708   0.51758   4.78707    64.425    17.927 1900.6  0.602  1.87   2 
  1.55829   0.57830   4.73107    63.462    18.638 2023.9  0.284  1.59   2 
  1.48611   0.55520   4.82741    49.751    19.072 2467.0  0.521  1.15   2 
  1.59934   0.59547   4.70596    24.862    18.251 1618.4  0.018  1.82   2 
  1.58279   0.61525   4.72790    27.188    19.265 2153.1  0.335  1.62   2 
  1.60411   0.57324   4.71236    37.156    18.414 2153.9  0.360  1.47   2 
  1.46211   0.52915   4.83027    52.419    19.109 2490.6  0.574  1.11   2 
  1.62356   0.62080   4.65663    62.475    18.576 2075.9  0.268  1.54   2 
  1.56862   0.57541   4.71547    34.324    19.166 2148.5  0.270  1.59   2 
  1.51608   0.52085   4.78789    51.188    18.511 2198.4  0.167  1.58   2 
  1.51821   0.56852   4.79361    65.015    19.123 1961.1  0.184  1.66   2 
  1.51082   0.60672   4.76061    29.464    20.885 2416.7  0.480  1.20   2 
  1.60083   0.59314   4.69033    60.401    23.932 2176.6  0.403  1.40   2 
  1.58423   0.57416   4.73261    38.085    21.443 2393.3  0.439  1.40   2 
  1.57820   0.55719   4.73744    41.060    19.705 2326.3  0.461  1.41   2 
  1.51815   0.60005   4.76165    59.801    19.570 2255.3  0.316  1.51   2 
  1.61712   0.58123   4.71994    40.047    20.871 2331.3  0.415  1.33   2 
  1.59760   0.61152   4.74346    25.762    19.810 2248.8  0.211  1.63   2 
  1.55983   0.56126   4.78045    45.713    19.810 1886.5  0.131  1.74   2 
  1.43848   0.57794   4.86017    66.771    20.738 1940.4  0.281  1.62   2 
  1.57193   0.58942   4.72473    21.873    20.748 1951.1  0.216  1.61   2 
  1.47865   0.53492   4.81204    50.955    20.135 1952.5  0.250  1.58   2 
  1.59152   0.62579   4.69919    62.190    20.948 2016.4  0.298  1.61   2 
  1.55341   0.62034   4.72787    63.661    20.472 2306.1  0.453  1.53   2 
  1.50070   0.54250   4.68934    19.125    20.265 1579.9  0.143  1.93   2 
  1.59003   0.59305   4.75840    25.207    20.466 1832.3  0.161  1.85   2 
  1.54022   0.62838   4.73660    60.625    20.373 2265.4  0.226  1.54   2 
  1.50555   0.53623   4.69699    18.477    20.501 1678.1  0.180  1.76   2 
  1.53364   0.55584   4.69299    19.627    21.082 1932.6  0.262  1.62   2 
  1.60801   0.61097   4.73772    26.550    20.548 2435.8  0.478  1.31   2 
  1.53118   0.60116   4.75131    34.888    23.169 2423.0  0.454  1.28   2 
  1.51224   0.54564   4.80973    52.658    20.597 2211.9  0.255  1.58   2 
  1.46732   0.56099   4.83866    49.379    21.348 2353.1  0.512  1.23   2 
  1.60054   0.63641   4.72489    24.172    21.365 2459.9  0.481  1.48   2 
  1.60738   0.61959   4.69350    61.545    21.320 2191.5  0.353  1.53   2 
  1.56737   0.61403   4.73768    27.346    21.191 2028.7  0.242  1.69   2 
  1.61896   0.58513   4.73844    26.381    21.077 1996.9  0.318  1.47   2 
  1.61318   0.56085   4.71533    36.921    21.360 2159.7  0.304  1.46   2 
  1.52488   0.56815   4.80514    47.691    21.726 2421.9  0.434  1.25   2 
  1.53254   0.57400   4.80268    44.063    21.629 2468.8  0.500  1.79   2 
  1.53757   0.60995   4.70899    20.164    22.607 1946.8  0.273  1.60   2 
  1.45686   0.56141   4.83738    51.522    23.834 2384.9  0.445  1.29   2 
  1.51157   0.53598   4.81252    52.700    21.910 2331.0  0.083  1.62   2 
  1.52415   0.64782   4.76758    25.104    22.863 2307.8  0.435  1.23   2 
  1.63472   0.58084   4.71863    42.450    22.055 1843.5  0.286  1.90   2 
  1.61308   0.63316   4.65448    62.748    22.355 2039.3  0.368  1.48   2 
  1.56447   0.63911   4.75149    22.604    23.398 2246.1  0.392  1.42   2 
  1.65033   0.60742   4.71378    41.925    22.343 2264.6  0.717  1.45   2 
  1.38302   0.54363   4.88070    49.570    22.482 2353.9  0.344  1.37   2 
  1.51193   0.60941   4.73214    64.762    22.864 2349.7  0.371  1.40   2 
  1.55332   0.56412   4.76986    44.260    23.975 2550.8  0.528  1.24   2 
  1.46625   0.58712   4.75829    66.440    22.586 2031.6  0.286  1.46   2 
  1.62094   0.58588   4.73013    40.125    23.278 2064.4  0.179  1.79   2 
  1.44110   0.55102   4.85430    50.202    23.182 2042.9  0.267  1.55   2 
  1.43192   0.56465   4.86596    47.025    23.383 2494.0  0.437  1.31   2 
  1.52858   0.55678   4.80639    53.400    22.993 2417.7  0.107  1.62   2 
  1.38767   0.55583   4.77680     9.150    23.296 1791.9  0.256  1.63   2 
  1.46181   0.62151   4.75523    28.660    23.533 1937.3  0.324  1.67   2 
  1.49117   0.63063   4.76031    25.175    26.641 2266.2  0.399  1.36   2 
  1.52358   0.61681   4.70051    18.013    24.237 2149.4  0.461  1.28   2 
  1.50189   0.63314   4.72749    29.813    23.448 1768.3  0.131  1.65   2 
  1.43262   0.59783   4.73623    16.800    23.642 1660.6  0.072  1.92   2 
  1.51028   0.62663   4.73363    31.020    24.302 2241.7  0.333  1.41   2 
  1.42830   0.56588   4.83852    49.024    24.304 2534.9  0.511  1.19   2 
  1.55125   0.64826   4.73202    20.081    23.870 1647.9  0.033  1.91   2 
  1.47176   0.56951   4.70781     9.214    24.117 1640.1  0.142  1.91   2 
  1.47444   0.59799   4.72890    66.285    24.145 2206.0  0.338  1.42   2 
  1.53910   0.62071   4.72802    32.969    24.281 2227.7  0.405  1.30   2 
  1.43791   0.56991   4.81752    47.720    25.273 2331.3  0.456  1.36   2 
  1.45390   0.55081   4.85712    52.924    24.628 2226.6  0.426  1.30   2 
  1.43935   0.58886   4.72340    15.938    24.357 1819.8  0.077  1.80   2 
  1.42868   0.55712   4.74776    14.077    25.334 2031.1  0.446  1.42   2 
  1.55681   0.66036   4.72788    20.102    25.813 2259.1  0.411  1.38   2 
  1.55854   0.56289   4.76651    55.205    24.722 2021.2  0.194  1.81   2 
  1.48590   0.61410   4.74308    34.047    25.667 2510.9  0.502  1.20   2 
  1.54207   0.56305   4.76240    42.150    24.855 2297.4  0.318  1.53   2 
  1.54625   0.56955   4.78083    43.388    25.400 2467.7  0.458  1.36   2 
  1.50301   0.60714   4.73316    67.863    24.747 2045.0  0.192  1.55   2 
  1.57296   0.59783   4.74463    38.758    25.089 2019.7  0.165  1.75   2 
  1.53918   0.58627   4.74037    39.940    27.624 2449.7  0.476  1.28   2 
  1.60107   0.58282   4.67858    63.948    25.388 2132.5  0.407  1.36   2 
  1.53581   0.65547   4.73585    16.357    27.716 2176.3  0.332  1.61   2 
  1.47333   0.60397   4.69643    10.582    25.557 1692.5  0.240  1.77   2 
  1.43510   0.60359   4.76411    30.337    25.136 2108.9  0.280  1.58   2 
  1.48431   0.62337   4.73770    32.189    25.166 2221.7  0.379  1.35   2 
  1.54107   0.65971   4.76523    22.125    25.201 1903.2  0.214  1.87   2 
  1.48573   0.61366   4.75008    31.166    26.369 2496.7  0.484  1.16   2 
  1.54215   0.56293   4.77078    54.344    26.122 2320.3  0.416  1.37   2 
  1.58716   0.55103   4.75835    55.613    25.266 3167.3  0.916  0.77   2 
  1.62379   0.56388   4.72707    56.250    25.721 2598.8  0.517  1.17   2 
  1.47362   0.56750   4.78669    45.797    26.809 2255.4  0.427  1.36   2 
  1.42585   0.58655   4.86273    51.090    26.622 2199.0  0.432  1.34   2 
  1.55465   0.57325   4.68484    65.789    27.122 2300.1  0.450  1.32   2 
  1.60082   0.55635   4.74236    55.765    26.474 2280.4  0.339  1.45   2 
  1.49742   0.58534   4.77108    43.139    29.487 2488.7  0.525  1.21   2 
  1.43430   0.57972   4.82423    48.005    27.874 2446.2  0.485  1.24   2 
  1.40951   0.58331   4.81723    47.073    26.739 2365.8  0.477  1.28   2 
  1.46628   0.57428   4.82939    52.432    26.845 2129.5  0.325  1.48   2 
  1.53396   0.61053   4.74709    36.705    27.358 2179.6  0.307  1.57   2 
  1.49145   0.61600   4.76251    27.010    27.127 1944.4  0.341  1.43   2 
  1.49185   0.61286   4.74420    29.131    27.168 2245.9  0.279  1.51   2 
  1.51684   0.55942   4.77846    44.782    26.902 2076.9  0.348  1.51   2 
  1.45658   0.62486   4.72632    13.125    27.020 1880.6  0.000  1.75   2 
  1.53557   0.62325   4.72235    14.513    26.955 1758.3  0.047  1.84   2 
  1.47315   0.61954   4.75736    34.926    27.276 2222.8  0.334  1.45   2 
  1.53685   0.67088   4.73696    18.421    27.530 2395.3  0.438  1.33   2 
  1.52509   0.66292   4.76563    21.038    27.215 1608.4  0.071  1.98   2 
  1.49011   0.60589   4.76278    29.816    27.649 2474.0  0.541  1.24   2 
  1.47036   0.61648   4.70701    12.862    27.410 1895.0  0.095  2.01   2 
  1.44767   0.62449   4.76008    27.511    28.170 1934.3  0.278  1.55   2 
  1.45787   0.60526   4.77653    32.240    27.857 2787.7  0.631  0.99   2 
  1.40625   0.57130   4.87887    50.617    31.819 2495.3  0.522  1.17   2 
  1.41783   0.59547   4.74281     7.500    27.651 1934.3  0.243  1.65   2 
  1.42343   0.57921   4.73806     9.413    27.475 1861.4  0.131  1.60   2 
  1.50003   0.60837   4.68139    12.002    27.836 1940.7  0.338  1.44   2 
  1.52336   0.66365   4.76782    21.038    27.605 1701.3  0.012  2.28   2 
  1.53521   0.60948   4.73438    37.463    28.400 2679.4  0.559  1.15   2 
  1.40718   0.59282   4.74592     9.188    27.734 1868.6  0.036  2.11   2 
  1.51957   0.64499   4.69821    13.036    28.782 1981.6  0.304  1.59   2 
  1.57059   0.65467   4.72861    20.740    28.129 2464.3  0.409  1.58   2 
  1.45434   0.61071   4.77601    34.042    28.454 2419.2  0.444  1.30   2 
  1.40594   0.59892   4.74930     6.412    27.994 1542.8  0.208  1.72   2 
  1.68122   0.67016   4.56922    15.825    28.016 2219.5  0.226  1.83   2 
  1.47334   0.60618   4.77347    30.371    28.384 2191.9  0.164  1.69   2 
  1.40133   0.57727   4.84604    50.266    28.638 2292.4  0.381  1.34   2 
  1.66147   0.54285   4.69078    57.412    28.254 2210.6  0.095  1.84   2 
  1.55209   0.66930   4.73956    17.950    28.406 2130.5  0.226  1.65   2 
  1.55563   0.65817   4.74572    19.913    28.384 1920.6  0.119  1.98   2 
  1.54308   0.58859   4.74997    42.551    28.464 2290.2  0.406  1.54   2 
  1.55683   0.57530   4.77112    56.040    28.475 2029.3  0.055  1.72   2 
  1.53541   0.66403   4.76468    19.390    28.938 2356.6  0.452  1.39   2 
